## w(eV)         sigma(Sm^-1)     kappa(W(mK)^-1)        L12/e(Am^-1)      L22/e^2(Wm^-1)
    0.01              304231             6908.63        -1.13096e+07          1.0749e+09
    0.03              304230             6908.86        -1.13099e+07         1.07494e+09
    0.05              304227             6909.32        -1.13103e+07         1.07502e+09
    0.07              304222                6910         -1.1311e+07         1.07515e+09
    0.09              304216             6910.92        -1.13119e+07         1.07531e+09
    0.11              304208             6912.07         -1.1313e+07         1.07551e+09
    0.13              304198             6913.45        -1.13144e+07         1.07576e+09
    0.15              304187             6915.06        -1.13159e+07         1.07604e+09
    0.17              304175              6916.9        -1.13177e+07         1.07637e+09
    0.19              304161             6918.96        -1.13198e+07         1.07673e+09
    0.21              304145             6921.26         -1.1322e+07         1.07714e+09
    0.23              304128             6923.78        -1.13245e+07         1.07759e+09
    0.25              304109             6926.53        -1.13272e+07         1.07807e+09
    0.27              304089             6929.51        -1.13301e+07          1.0786e+09
    0.29              304067             6932.72        -1.13333e+07         1.07917e+09
    0.31              304044             6936.15        -1.13367e+07         1.07978e+09
    0.33              304019             6939.82        -1.13403e+07         1.08043e+09
    0.35              303992             6943.71        -1.13441e+07         1.08112e+09
    0.37              303964             6947.82        -1.13481e+07         1.08185e+09
    0.39              303934             6952.16        -1.13524e+07         1.08263e+09
    0.41              303903             6956.73        -1.13569e+07         1.08344e+09
    0.43              303870             6961.52        -1.13616e+07         1.08429e+09
    0.45              303836             6966.54        -1.13666e+07         1.08518e+09
    0.47              303800             6971.78        -1.13717e+07         1.08612e+09
    0.49              303763             6977.25        -1.13771e+07         1.08709e+09
    0.51              303724             6982.93        -1.13827e+07         1.08811e+09
    0.53              303683             6988.85        -1.13886e+07         1.08916e+09
    0.55              303641             6994.98        -1.13946e+07         1.09025e+09
    0.57              303598             7001.33        -1.14009e+07         1.09139e+09
    0.59              303553             7007.91        -1.14074e+07         1.09256e+09
    0.61              303506              7014.7        -1.14141e+07         1.09378e+09
    0.63              303458             7021.72        -1.14211e+07         1.09504e+09
    0.65              303408             7028.95        -1.14283e+07         1.09633e+09
    0.67              303357              7036.4        -1.14357e+07         1.09767e+09
    0.69              303304             7044.07        -1.14433e+07         1.09904e+09
    0.71              303250             7051.96        -1.14511e+07         1.10046e+09
    0.73              303194             7060.06        -1.14592e+07         1.10191e+09
    0.75              303137             7068.38        -1.14674e+07         1.10341e+09
    0.77              303078             7076.91        -1.14759e+07         1.10494e+09
    0.79              303018             7085.65        -1.14846e+07         1.10652e+09
    0.81              302956             7094.61        -1.14936e+07         1.10813e+09
    0.83              302893             7103.78        -1.15027e+07         1.10979e+09
    0.85              302828             7113.16        -1.15121e+07         1.11148e+09
    0.87              302762             7122.75        -1.15217e+07         1.11322e+09
    0.89              302694             7132.55        -1.15315e+07         1.11499e+09
    0.91              302624             7142.55        -1.15415e+07          1.1168e+09
    0.93              302554             7152.76        -1.15518e+07         1.11865e+09
    0.95              302481             7163.18        -1.15622e+07         1.12055e+09
    0.97              302408             7173.81        -1.15729e+07         1.12248e+09
    0.99              302332             7184.63        -1.15838e+07         1.12445e+09
    1.01              302256             7195.66        -1.15949e+07         1.12646e+09
    1.03              302177             7206.89        -1.16062e+07         1.12851e+09
    1.05              302098             7218.32        -1.16177e+07         1.13059e+09
    1.07              302017             7229.96        -1.16295e+07         1.13272e+09
    1.09              301934             7241.78        -1.16415e+07         1.13488e+09
    1.11              301850             7253.81        -1.16536e+07         1.13709e+09
    1.13              301765             7266.03         -1.1666e+07         1.13933e+09
    1.15              301678             7278.45        -1.16786e+07         1.14161e+09
    1.17              301589             7291.06        -1.16915e+07         1.14393e+09
    1.19              301499             7303.86        -1.17045e+07         1.14629e+09
    1.21              301408             7316.85        -1.17177e+07         1.14869e+09
    1.23              301315             7330.03        -1.17312e+07         1.15112e+09
    1.25              301221              7343.4        -1.17448e+07          1.1536e+09
    1.27              301126             7356.95        -1.17587e+07         1.15611e+09
    1.29              301029              7370.7        -1.17728e+07         1.15866e+09
    1.31              300930             7384.62        -1.17871e+07         1.16125e+09
    1.33              300831             7398.73        -1.18016e+07         1.16388e+09
    1.35              300729             7413.01        -1.18163e+07         1.16654e+09
    1.37              300627             7427.48        -1.18312e+07         1.16924e+09
    1.39              300523             7442.12        -1.18463e+07         1.17198e+09
    1.41              300417             7456.95        -1.18616e+07         1.17476e+09
    1.43              300310             7471.94        -1.18772e+07         1.17757e+09
    1.45              300202             7487.11        -1.18929e+07         1.18042e+09
    1.47              300093             7502.45        -1.19088e+07         1.18331e+09
    1.49              299982             7517.96         -1.1925e+07         1.18624e+09
    1.51              299869             7533.64        -1.19413e+07          1.1892e+09
    1.53              299756             7549.49        -1.19579e+07          1.1922e+09
    1.55              299641              7565.5        -1.19746e+07         1.19524e+09
    1.57              299524             7581.67        -1.19915e+07         1.19832e+09
    1.59              299407             7598.01        -1.20087e+07         1.20143e+09
    1.61              299287             7614.51         -1.2026e+07         1.20458e+09
    1.63              299167             7631.16        -1.20436e+07         1.20776e+09
    1.65              299045             7647.97        -1.20613e+07         1.21098e+09
    1.67              298922             7664.94        -1.20793e+07         1.21424e+09
    1.69              298798             7682.06        -1.20974e+07         1.21753e+09
    1.71              298672             7699.33        -1.21157e+07         1.22086e+09
    1.73              298545             7716.75        -1.21343e+07         1.22422e+09
    1.75              298416             7734.32         -1.2153e+07         1.22762e+09
    1.77              298287             7752.03        -1.21719e+07         1.23106e+09
    1.79              298156             7769.88         -1.2191e+07         1.23453e+09
    1.81              298023             7787.88        -1.22103e+07         1.23803e+09
    1.83              297890             7806.02        -1.22298e+07         1.24157e+09
    1.85              297755             7824.29        -1.22495e+07         1.24515e+09
    1.87              297619             7842.71        -1.22693e+07         1.24876e+09
    1.89              297481             7861.25        -1.22894e+07         1.25241e+09
    1.91              297343             7879.93        -1.23096e+07         1.25609e+09
    1.93              297203             7898.73        -1.23301e+07          1.2598e+09
    1.95              297061             7917.67        -1.23507e+07         1.26355e+09
    1.97              296919             7936.73        -1.23715e+07         1.26734e+09
    1.99              296775             7955.91        -1.23924e+07         1.27116e+09
    2.01              296630             7975.22        -1.24136e+07         1.27501e+09
    2.03              296484             7994.64         -1.2435e+07         1.27889e+09
    2.05              296337             8014.18        -1.24565e+07         1.28281e+09
    2.07              296188             8033.84        -1.24782e+07         1.28676e+09
    2.09              296038             8053.61        -1.25001e+07         1.29075e+09
    2.11              295887             8073.49        -1.25221e+07         1.29477e+09
    2.13              295735             8093.48        -1.25444e+07         1.29882e+09
    2.15              295581             8113.57        -1.25668e+07          1.3029e+09
    2.17              295426             8133.77        -1.25894e+07         1.30702e+09
    2.19              295270             8154.07        -1.26121e+07         1.31117e+09
    2.21              295113             8174.47        -1.26351e+07         1.31535e+09
    2.23              294955             8194.96        -1.26582e+07         1.31956e+09
    2.25              294796             8215.56        -1.26815e+07         1.32381e+09
    2.27              294635             8236.24        -1.27049e+07         1.32809e+09
    2.29              294473             8257.01        -1.27285e+07         1.33239e+09
    2.31              294310             8277.88        -1.27523e+07         1.33673e+09
    2.33              294146             8298.82        -1.27762e+07         1.34111e+09
    2.35              293981             8319.85        -1.28004e+07         1.34551e+09
    2.37              293814             8340.96        -1.28246e+07         1.34994e+09
    2.39              293647             8362.15        -1.28491e+07          1.3544e+09
    2.41              293478             8383.42        -1.28737e+07          1.3589e+09
    2.43              293308             8404.76        -1.28984e+07         1.36342e+09
    2.45              293137             8426.17        -1.29233e+07         1.36797e+09
    2.47              292965             8447.64        -1.29484e+07         1.37256e+09
    2.49              292792             8469.19        -1.29736e+07         1.37717e+09
    2.51              292618              8490.8         -1.2999e+07         1.38181e+09
    2.53              292442             8512.46        -1.30246e+07         1.38648e+09
    2.55              292266             8534.19        -1.30502e+07         1.39119e+09
    2.57              292088             8555.97        -1.30761e+07         1.39591e+09
    2.59              291909             8577.81        -1.31021e+07         1.40067e+09
    2.61              291730              8599.7        -1.31282e+07         1.40546e+09
    2.63              291549             8621.63        -1.31545e+07         1.41027e+09
    2.65              291367             8643.61        -1.31809e+07         1.41511e+09
    2.67              291184             8665.64        -1.32075e+07         1.41998e+09
    2.69              291000              8687.7        -1.32342e+07         1.42488e+09
    2.71              290815             8709.81        -1.32611e+07          1.4298e+09
    2.73              290629             8731.94         -1.3288e+07         1.43475e+09
    2.75              290441             8754.12        -1.33152e+07         1.43973e+09
    2.77              290253             8776.32        -1.33424e+07         1.44473e+09
    2.79              290064             8798.55        -1.33699e+07         1.44976e+09
    2.81              289874              8820.8        -1.33974e+07         1.45482e+09
    2.83              289682             8843.08        -1.34251e+07          1.4599e+09
    2.85              289490             8865.37        -1.34529e+07         1.46501e+09
    2.87              289297             8887.68        -1.34808e+07         1.47014e+09
    2.89              289102             8910.01        -1.35088e+07         1.47529e+09
    2.91              288907             8932.35         -1.3537e+07         1.48048e+09
    2.93              288710              8954.7        -1.35653e+07         1.48568e+09
    2.95              288513             8977.05        -1.35938e+07         1.49091e+09
    2.97              288315             8999.41        -1.36223e+07         1.49616e+09
    2.99              288115             9021.77         -1.3651e+07         1.50144e+09
    3.01              287915             9044.12        -1.36798e+07         1.50674e+09
    3.03              287714             9066.48        -1.37087e+07         1.51206e+09
    3.05              287511             9088.82        -1.37377e+07         1.51741e+09
    3.07              287308             9111.15        -1.37668e+07         1.52278e+09
    3.09              287104             9133.48         -1.3796e+07         1.52817e+09
    3.11              286899             9155.78        -1.38254e+07         1.53358e+09
    3.13              286693             9178.07        -1.38548e+07         1.53902e+09
    3.15              286485             9200.34        -1.38844e+07         1.54447e+09
    3.17              286277             9222.58        -1.39141e+07         1.54995e+09
    3.19              286068              9244.8        -1.39438e+07         1.55545e+09
    3.21              285858             9266.99        -1.39737e+07         1.56097e+09
    3.23              285648             9289.15        -1.40037e+07          1.5665e+09
    3.25              285436             9311.27        -1.40337e+07         1.57206e+09
    3.27              285223             9333.36        -1.40639e+07         1.57764e+09
    3.29              285009              9355.4        -1.40941e+07         1.58324e+09
    3.31              284795             9377.41        -1.41245e+07         1.58885e+09
    3.33              284579             9399.37        -1.41549e+07         1.59449e+09
    3.35              284363             9421.28        -1.41854e+07         1.60014e+09
    3.37              284146             9443.14         -1.4216e+07         1.60581e+09
    3.39              283928             9464.94        -1.42467e+07          1.6115e+09
    3.41              283708              9486.7        -1.42775e+07         1.61721e+09
    3.43              283488             9508.39        -1.43083e+07         1.62293e+09
    3.45              283268             9530.02        -1.43392e+07         1.62867e+09
    3.47              283046             9551.58        -1.43702e+07         1.63442e+09
    3.49              282823             9573.08        -1.44013e+07          1.6402e+09
    3.51              282600             9594.51        -1.44325e+07         1.64598e+09
    3.53              282375             9615.87        -1.44637e+07         1.65179e+09
    3.55              282150             9637.16         -1.4495e+07         1.65761e+09
    3.57              281924             9658.36        -1.45263e+07         1.66344e+09
    3.59              281697             9679.49        -1.45577e+07         1.66929e+09
    3.61              281469             9700.53        -1.45892e+07         1.67515e+09
    3.63              281240             9721.49        -1.46207e+07         1.68102e+09
    3.65              281010             9742.36        -1.46523e+07         1.68691e+09
    3.67              280780             9763.14        -1.46839e+07         1.69281e+09
    3.69              280548             9783.83        -1.47156e+07         1.69873e+09
    3.71              280316             9804.42        -1.47474e+07         1.70466e+09
    3.73              280083             9824.91        -1.47792e+07         1.71059e+09
    3.75              279849              9845.3         -1.4811e+07         1.71654e+09
    3.77              279614             9865.59        -1.48429e+07         1.72251e+09
    3.79              279379             9885.77        -1.48748e+07         1.72848e+09
    3.81              279142             9905.85        -1.49068e+07         1.73446e+09
    3.83              278905             9925.81        -1.49388e+07         1.74045e+09
    3.85              278667             9945.66        -1.49708e+07         1.74646e+09
    3.87              278428             9965.39        -1.50029e+07         1.75247e+09
    3.89              278188             9985.01         -1.5035e+07         1.75849e+09
    3.91              277947             10004.5        -1.50672e+07         1.76452e+09
    3.93              277706             10023.9        -1.50993e+07         1.77056e+09
    3.95              277464             10043.1        -1.51315e+07         1.77661e+09
    3.97              277221             10062.2        -1.51637e+07         1.78266e+09
    3.99              276977             10081.2        -1.51959e+07         1.78872e+09
    4.01              276732             10100.1        -1.52282e+07         1.79479e+09
    4.03              276486             10118.8        -1.52604e+07         1.80086e+09
    4.05              276240             10137.4        -1.52927e+07         1.80694e+09
    4.07              275993             10155.8         -1.5325e+07         1.81303e+09
    4.09              275744             10174.1        -1.53572e+07         1.81912e+09
    4.11              275496             10192.3        -1.53895e+07         1.82522e+09
    4.13              275246             10210.3        -1.54218e+07         1.83132e+09
    4.15              274995             10228.1        -1.54541e+07         1.83742e+09
    4.17              274744             10245.8        -1.54864e+07         1.84353e+09
    4.19              274492             10263.4        -1.55187e+07         1.84964e+09
    4.21              274239             10280.8         -1.5551e+07         1.85576e+09
    4.23              273985               10298        -1.55832e+07         1.86187e+09
    4.25              273731             10315.1        -1.56155e+07         1.86799e+09
    4.27              273475               10332        -1.56478e+07         1.87411e+09
    4.29              273219             10348.8          -1.568e+07         1.88024e+09
    4.31              272962             10365.4        -1.57122e+07         1.88636e+09
    4.33              272704             10381.8        -1.57444e+07         1.89248e+09
    4.35              272446               10398        -1.57765e+07          1.8986e+09
    4.37              272186             10414.1        -1.58087e+07         1.90473e+09
    4.39              271926               10430        -1.58408e+07         1.91085e+09
    4.41              271665             10445.7        -1.58729e+07         1.91697e+09
    4.43              271403             10461.3        -1.59049e+07         1.92309e+09
    4.45              271141             10476.6        -1.59369e+07         1.92921e+09
    4.47              270877             10491.8        -1.59689e+07         1.93532e+09
    4.49              270613             10506.8        -1.60008e+07         1.94143e+09
    4.51              270348             10521.6        -1.60327e+07         1.94754e+09
    4.53              270082             10536.2        -1.60646e+07         1.95365e+09
    4.55              269815             10550.7        -1.60963e+07         1.95975e+09
    4.57              269548             10564.9        -1.61281e+07         1.96585e+09
    4.59              269280               10579        -1.61598e+07         1.97194e+09
    4.61              269011             10592.8        -1.61914e+07         1.97803e+09
    4.63              268741             10606.5         -1.6223e+07         1.98411e+09
    4.65              268470               10620        -1.62545e+07         1.99018e+09
    4.67              268198             10633.2        -1.62859e+07         1.99625e+09
    4.69              267926             10646.3        -1.63173e+07         2.00231e+09
    4.71              267653             10659.1        -1.63486e+07         2.00836e+09
    4.73              267379             10671.8        -1.63798e+07         2.01441e+09
    4.75              267104             10684.2         -1.6411e+07         2.02044e+09
    4.77              266829             10696.5        -1.64421e+07         2.02647e+09
    4.79              266552             10708.5        -1.64731e+07         2.03249e+09
    4.81              266275             10720.4         -1.6504e+07          2.0385e+09
    4.83              265997               10732        -1.65348e+07          2.0445e+09
    4.85              265718             10743.4        -1.65656e+07         2.05049e+09
    4.87              265438             10754.5        -1.65963e+07         2.05647e+09
    4.89              265158             10765.5        -1.66268e+07         2.06244e+09
    4.91              264876             10776.3        -1.66573e+07         2.06839e+09
    4.93              264594             10786.8        -1.66877e+07         2.07434e+09
    4.95              264311             10797.1         -1.6718e+07         2.08027e+09
    4.97              264027             10807.2        -1.67481e+07         2.08618e+09
    4.99              263743             10817.1        -1.67782e+07         2.09209e+09
    5.01              263457             10826.7        -1.68082e+07         2.09798e+09
    5.03              263171             10836.2         -1.6838e+07         2.10385e+09
    5.05              262884             10845.4        -1.68677e+07         2.10972e+09
    5.07              262596             10854.4        -1.68974e+07         2.11556e+09
    5.09              262307             10863.1        -1.69269e+07         2.12139e+09
    5.11              262017             10871.6        -1.69562e+07         2.12721e+09
    5.13              261727             10879.9        -1.69855e+07         2.13301e+09
    5.15              261435               10888        -1.70146e+07         2.13879e+09
    5.17              261143             10895.8        -1.70436e+07         2.14455e+09
    5.19              260850             10903.4        -1.70725e+07          2.1503e+09
    5.21              260556             10910.8        -1.71013e+07         2.15603e+09
    5.23              260261               10918        -1.71299e+07         2.16174e+09
    5.25              259966             10924.9        -1.71583e+07         2.16743e+09
    5.27              259669             10931.5        -1.71867e+07          2.1731e+09
    5.29              259372               10938        -1.72148e+07         2.17875e+09
    5.31              259074             10944.2        -1.72429e+07         2.18439e+09
    5.33              258775             10950.2        -1.72708e+07            2.19e+09
    5.35              258475             10955.9        -1.72985e+07         2.19559e+09
    5.37              258174             10961.4        -1.73261e+07         2.20116e+09
    5.39              257872             10966.6        -1.73535e+07          2.2067e+09
    5.41              257570             10971.7        -1.73808e+07         2.21223e+09
    5.43              257266             10976.5        -1.74079e+07         2.21773e+09
    5.45              256962               10981        -1.74348e+07         2.22321e+09
    5.47              256657             10985.3        -1.74616e+07         2.22867e+09
    5.49              256351             10989.4        -1.74882e+07          2.2341e+09
    5.51              256044             10993.2        -1.75147e+07         2.23951e+09
    5.53              255736             10996.8         -1.7541e+07         2.24489e+09
    5.55              255427             11000.1         -1.7567e+07         2.25025e+09
    5.57              255117             11003.2         -1.7593e+07         2.25558e+09
    5.59              254807             11006.1        -1.76187e+07         2.26089e+09
    5.61              254495             11008.7        -1.76443e+07         2.26617e+09
    5.63              254183             11011.1        -1.76696e+07         2.27142e+09
    5.65              253870             11013.3        -1.76948e+07         2.27665e+09
    5.67              253556             11015.2        -1.77198e+07         2.28185e+09
    5.69              253241             11016.8        -1.77446e+07         2.28702e+09
    5.71              252925             11018.3        -1.77692e+07         2.29216e+09
    5.73              252608             11019.5        -1.77936e+07         2.29728e+09
    5.75              252290             11020.4        -1.78178e+07         2.30236e+09
    5.77              251971             11021.1        -1.78418e+07         2.30742e+09
    5.79              251652             11021.6        -1.78656e+07         2.31244e+09
    5.81              251331             11021.8        -1.78892e+07         2.31744e+09
    5.83              251010             11021.8        -1.79126e+07         2.32241e+09
    5.85              250687             11021.5        -1.79358e+07         2.32734e+09
    5.87              250364               11021        -1.79588e+07         2.33225e+09
    5.89              250040             11020.3        -1.79815e+07         2.33712e+09
    5.91              249714             11019.3        -1.80041e+07         2.34196e+09
    5.93              249388             11018.1        -1.80264e+07         2.34677e+09
    5.95              249061             11016.7        -1.80485e+07         2.35154e+09
    5.97              248733               11015        -1.80704e+07         2.35628e+09
    5.99              248404             11013.1         -1.8092e+07         2.36099e+09
    6.01              248074             11010.9        -1.81134e+07         2.36567e+09
    6.03              247743             11008.5        -1.81346e+07         2.37031e+09
    6.05              247412             11005.9        -1.81556e+07         2.37492e+09
    6.07              247079             11003.1        -1.81763e+07         2.37949e+09
    6.09              246745               11000        -1.81968e+07         2.38403e+09
    6.11              246410             10996.6        -1.82171e+07         2.38853e+09
    6.13              246075             10993.1        -1.82371e+07         2.39299e+09
    6.15              245738             10989.3        -1.82569e+07         2.39742e+09
    6.17              245401             10985.3        -1.82764e+07         2.40182e+09
    6.19              245062               10981        -1.82957e+07         2.40617e+09
    6.21              244723             10976.5        -1.83148e+07         2.41049e+09
    6.23              244382             10971.8        -1.83336e+07         2.41477e+09
    6.25              244041             10966.9        -1.83521e+07         2.41902e+09
    6.27              243698             10961.7        -1.83704e+07         2.42323e+09
    6.29              243355             10956.3        -1.83884e+07         2.42739e+09
    6.31              243011             10950.7        -1.84062e+07         2.43152e+09
    6.33              242665             10944.9        -1.84238e+07         2.43561e+09
    6.35              242319             10938.8         -1.8441e+07         2.43967e+09
    6.37              241972             10932.5         -1.8458e+07         2.44368e+09
    6.39              241623               10926        -1.84748e+07         2.44765e+09
    6.41              241274             10919.3        -1.84913e+07         2.45158e+09
    6.43              240924             10912.4        -1.85075e+07         2.45548e+09
    6.45              240573             10905.2        -1.85234e+07         2.45933e+09
    6.47              240221             10897.8        -1.85391e+07         2.46314e+09
    6.49              239867             10890.2        -1.85545e+07         2.46691e+09
    6.51              239513             10882.4        -1.85696e+07         2.47064e+09
    6.53              239158             10874.4        -1.85845e+07         2.47432e+09
    6.55              238802             10866.1        -1.85991e+07         2.47797e+09
    6.57              238445             10857.7        -1.86134e+07         2.48157e+09
    6.59              238087               10849        -1.86274e+07         2.48513e+09
    6.61              237728             10840.2        -1.86412e+07         2.48865e+09
    6.63              237367             10831.1        -1.86547e+07         2.49212e+09
    6.65              237006             10821.8        -1.86678e+07         2.49556e+09
    6.67              236644             10812.3        -1.86808e+07         2.49894e+09
    6.69              236281             10802.7        -1.86934e+07         2.50229e+09
    6.71              235917             10792.8        -1.87057e+07         2.50559e+09
    6.73              235552             10782.7        -1.87178e+07         2.50885e+09
    6.75              235186             10772.4        -1.87295e+07         2.51206e+09
    6.77              234819             10761.9         -1.8741e+07         2.51523e+09
    6.79              234451             10751.2        -1.87522e+07         2.51835e+09
    6.81              234082             10740.4        -1.87631e+07         2.52143e+09
    6.83              233712             10729.3        -1.87737e+07         2.52447e+09
    6.85              233341               10718         -1.8784e+07         2.52746e+09
    6.87              232969             10706.6         -1.8794e+07          2.5304e+09
    6.89              232596             10694.9        -1.88037e+07          2.5333e+09
    6.91              232222             10683.1        -1.88131e+07         2.53615e+09
    6.93              231847             10671.1        -1.88222e+07         2.53896e+09
    6.95              231471             10658.9         -1.8831e+07         2.54172e+09
    6.97              231094             10646.5        -1.88396e+07         2.54444e+09
    6.99              230716               10634        -1.88478e+07         2.54711e+09
    7.01              230337             10621.2        -1.88557e+07         2.54973e+09
    7.03              229958             10608.3        -1.88633e+07          2.5523e+09
    7.05              229577             10595.2        -1.88706e+07         2.55483e+09
    7.07              229195             10581.9        -1.88777e+07         2.55731e+09
    7.09              228812             10568.5        -1.88844e+07         2.55975e+09
    7.11              228428             10554.9        -1.88908e+07         2.56214e+09
    7.13              228044             10541.1        -1.88969e+07         2.56448e+09
    7.15              227658             10527.2        -1.89026e+07         2.56677e+09
    7.17              227271             10513.1        -1.89081e+07         2.56902e+09
    7.19              226884             10498.8        -1.89133e+07         2.57121e+09
    7.21              226495             10484.3        -1.89182e+07         2.57336e+09
    7.23              226106             10469.7        -1.89227e+07         2.57547e+09
    7.25              225715               10455         -1.8927e+07         2.57752e+09
    7.27              225324             10440.1        -1.89309e+07         2.57953e+09
    7.29              224931               10425        -1.89346e+07         2.58149e+09
    7.31              224538             10409.8        -1.89379e+07          2.5834e+09
    7.33              224144             10394.4        -1.89409e+07         2.58526e+09
    7.35              223748             10378.9        -1.89436e+07         2.58708e+09
    7.37              223352             10363.2         -1.8946e+07         2.58884e+09
    7.39              222955             10347.4        -1.89481e+07         2.59056e+09
    7.41              222557             10331.4        -1.89499e+07         2.59223e+09
    7.43              222158             10315.3        -1.89514e+07         2.59385e+09
    7.45              221759               10299        -1.89525e+07         2.59542e+09
    7.47              221358             10282.6        -1.89533e+07         2.59695e+09
    7.49              220956             10266.1        -1.89539e+07         2.59842e+09
    7.51              220554             10249.5        -1.89541e+07         2.59985e+09
    7.53              220150             10232.7         -1.8954e+07         2.60123e+09
    7.55              219746             10215.7        -1.89536e+07         2.60256e+09
    7.57              219341             10198.7        -1.89529e+07         2.60384e+09
    7.59              218935             10181.5        -1.89519e+07         2.60507e+09
    7.61              218528             10164.2        -1.89505e+07         2.60625e+09
    7.63              218120             10146.7        -1.89489e+07         2.60739e+09
    7.65              217711             10129.2        -1.89469e+07         2.60848e+09
    7.67              217301             10111.5        -1.89447e+07         2.60951e+09
    7.69              216891             10093.7        -1.89421e+07          2.6105e+09
    7.71              216480             10075.8        -1.89392e+07         2.61145e+09
    7.73              216068             10057.8         -1.8936e+07         2.61234e+09
    7.75              215655             10039.6        -1.89325e+07         2.61318e+09
    7.77              215241             10021.4        -1.89287e+07         2.61398e+09
    7.79              214826               10003        -1.89246e+07         2.61473e+09
    7.81              214411             9984.54        -1.89202e+07         2.61543e+09
    7.83              213994             9965.96        -1.89154e+07         2.61608e+09
    7.85              213577             9947.29        -1.89104e+07         2.61668e+09
    7.87              213160             9928.51        -1.89051e+07         2.61724e+09
    7.89              212741             9909.63        -1.88994e+07         2.61774e+09
    7.91              212322             9890.65        -1.88935e+07          2.6182e+09
    7.93              211901             9871.58        -1.88872e+07         2.61861e+09
    7.95              211480             9852.41        -1.88806e+07         2.61898e+09
    7.97              211059             9833.15        -1.88738e+07         2.61929e+09
    7.99              210636              9813.8        -1.88666e+07         2.61956e+09
    8.01              210213             9794.37        -1.88592e+07         2.61978e+09
    8.03              209789             9774.84        -1.88514e+07         2.61996e+09
    8.05              209364             9755.24        -1.88433e+07         2.62008e+09
    8.07              208939             9735.54         -1.8835e+07         2.62016e+09
    8.09              208513             9715.77        -1.88263e+07          2.6202e+09
    8.11              208086             9695.92        -1.88174e+07         2.62018e+09
    8.13              207659                9676        -1.88081e+07         2.62012e+09
    8.15              207231             9655.99        -1.87986e+07         2.62001e+09
    8.17              206802             9635.92        -1.87887e+07         2.61986e+09
    8.19              206372             9615.77        -1.87786e+07         2.61966e+09
    8.21              205942             9595.55        -1.87682e+07         2.61941e+09
    8.23              205511             9575.27        -1.87575e+07         2.61912e+09
    8.25              205080             9554.92        -1.87465e+07         2.61878e+09
    8.27              204648              9534.5        -1.87352e+07          2.6184e+09
    8.29              204215             9514.03        -1.87236e+07         2.61797e+09
    8.31              203782             9493.49        -1.87117e+07          2.6175e+09
    8.33              203348             9472.89        -1.86996e+07         2.61698e+09
    8.35              202914             9452.24        -1.86872e+07         2.61641e+09
    8.37              202479             9431.53        -1.86745e+07          2.6158e+09
    8.39              202043             9410.77        -1.86615e+07         2.61515e+09
    8.41              201607             9389.96        -1.86482e+07         2.61445e+09
    8.43              201171              9369.1        -1.86347e+07         2.61371e+09
    8.45              200733             9348.19        -1.86209e+07         2.61293e+09
    8.47              200296             9327.23        -1.86068e+07          2.6121e+09
    8.49              199857             9306.23        -1.85924e+07         2.61122e+09
    8.51              199419             9285.19        -1.85778e+07         2.61031e+09
    8.53              198980             9264.11        -1.85629e+07         2.60935e+09
    8.55              198540             9242.99        -1.85477e+07         2.60834e+09
    8.57              198100             9221.83        -1.85322e+07          2.6073e+09
    8.59              197659             9200.64        -1.85165e+07         2.60621e+09
    8.61              197218             9179.41        -1.85006e+07         2.60508e+09
    8.63              196777             9158.15        -1.84843e+07         2.60391e+09
    8.65              196335             9136.86        -1.84678e+07          2.6027e+09
    8.67              195893             9115.54        -1.84511e+07         2.60144e+09
    8.69              195450             9094.19        -1.84341e+07         2.60015e+09
    8.71              195007             9072.82        -1.84168e+07         2.59881e+09
    8.73              194564             9051.43        -1.83993e+07         2.59743e+09
    8.75              194120             9030.01        -1.83816e+07         2.59602e+09
    8.77              193676             9008.58        -1.83635e+07         2.59456e+09
    8.79              193232             8987.12        -1.83453e+07         2.59306e+09
    8.81              192787             8965.65        -1.83268e+07         2.59152e+09
    8.83              192342             8944.16         -1.8308e+07         2.58995e+09
    8.85              191897             8922.66         -1.8289e+07         2.58833e+09
    8.87              191451             8901.15        -1.82698e+07         2.58668e+09
    8.89              191005             8879.62        -1.82503e+07         2.58499e+09
    8.91              190559             8858.09        -1.82306e+07         2.58325e+09
    8.93              190113             8836.55        -1.82107e+07         2.58149e+09
    8.95              189666             8815.01        -1.81905e+07         2.57968e+09
    8.97              189220             8793.46        -1.81701e+07         2.57784e+09
    8.99              188773              8771.9        -1.81495e+07         2.57596e+09
    9.01              188326             8750.35        -1.81286e+07         2.57404e+09
    9.03              187878              8728.8        -1.81075e+07         2.57208e+09
    9.05              187431             8707.25        -1.80862e+07         2.57009e+09
    9.07              186983              8685.7        -1.80647e+07         2.56807e+09
    9.09              186536             8664.15        -1.80429e+07         2.56601e+09
    9.11              186088             8642.62         -1.8021e+07         2.56391e+09
    9.13              185640             8621.09        -1.79988e+07         2.56178e+09
    9.15              185192             8599.57        -1.79764e+07         2.55962e+09
    9.17              184744             8578.06        -1.79538e+07         2.55742e+09
    9.19              184296             8556.56         -1.7931e+07         2.55518e+09
    9.21              183848             8535.08         -1.7908e+07         2.55291e+09
    9.23              183400             8513.61        -1.78848e+07         2.55061e+09
    9.25              182951             8492.16        -1.78614e+07         2.54828e+09
    9.27              182503             8470.72        -1.78378e+07         2.54591e+09
    9.29              182055             8449.31         -1.7814e+07         2.54352e+09
    9.31              181607             8427.91          -1.779e+07         2.54109e+09
    9.33              181159             8406.54        -1.77658e+07         2.53862e+09
    9.35              180711             8385.19        -1.77414e+07         2.53613e+09
    9.37              180263             8363.87        -1.77169e+07         2.53361e+09
    9.39              179815             8342.57        -1.76921e+07         2.53105e+09
    9.41              179367             8321.29        -1.76672e+07         2.52847e+09
    9.43              178920             8300.05        -1.76421e+07         2.52586e+09
    9.45              178472             8278.83        -1.76168e+07         2.52321e+09
    9.47              178025             8257.65        -1.75913e+07         2.52054e+09
    9.49              177578              8236.5        -1.75657e+07         2.51784e+09
    9.51              177131             8215.38        -1.75399e+07         2.51511e+09
    9.53              176684              8194.3        -1.75139e+07         2.51235e+09
    9.55              176237             8173.25        -1.74878e+07         2.50956e+09
    9.57              175791             8152.24        -1.74615e+07         2.50675e+09
    9.59              175345             8131.26         -1.7435e+07         2.50391e+09
    9.61              174899             8110.33        -1.74084e+07         2.50104e+09
    9.63              174453             8089.44        -1.73816e+07         2.49814e+09
    9.65              174008             8068.59        -1.73547e+07         2.49522e+09
    9.67              173563             8047.78        -1.73276e+07         2.49228e+09
    9.69              173118             8027.01        -1.73003e+07         2.48931e+09
    9.71              172674             8006.29         -1.7273e+07         2.48631e+09
    9.73              172230             7985.62        -1.72454e+07         2.48329e+09
    9.75              171786             7964.99        -1.72178e+07         2.48024e+09
    9.77              171343             7944.41        -1.71899e+07         2.47718e+09
    9.79              170900             7923.88         -1.7162e+07         2.47408e+09
    9.81              170457              7903.4        -1.71339e+07         2.47097e+09
    9.83              170015             7882.97        -1.71057e+07         2.46783e+09
    9.85              169573              7862.6        -1.70773e+07         2.46467e+09
    9.87              169132             7842.27        -1.70489e+07         2.46148e+09
    9.89              168691                7822        -1.70203e+07         2.45828e+09
    9.91              168251             7801.79        -1.69915e+07         2.45505e+09
    9.93              167811             7781.63        -1.69627e+07          2.4518e+09
    9.95              167371             7761.53        -1.69337e+07         2.44853e+09
    9.97              166932             7741.49        -1.69047e+07         2.44525e+09
    9.99              166494              7721.5        -1.68755e+07         2.44194e+09
   10.01              166056             7701.58        -1.68461e+07         2.43861e+09
   10.03              165619             7681.72        -1.68167e+07         2.43526e+09
   10.05              165182             7661.91        -1.67872e+07         2.43189e+09
   10.07              164746             7642.18        -1.67576e+07         2.42851e+09
   10.09              164310              7622.5        -1.67279e+07          2.4251e+09
   10.11              163875             7602.89         -1.6698e+07         2.42168e+09
   10.13              163441             7583.34        -1.66681e+07         2.41824e+09
   10.15              163007             7563.86        -1.66381e+07         2.41478e+09
   10.17              162574             7544.44         -1.6608e+07         2.41131e+09
   10.19              162142             7525.09        -1.65778e+07         2.40782e+09
   10.21              161710             7505.81        -1.65475e+07         2.40431e+09
   10.23              161279              7486.6        -1.65171e+07         2.40079e+09
   10.25              160849             7467.46        -1.64866e+07         2.39725e+09
   10.27              160419             7448.39        -1.64561e+07          2.3937e+09
   10.29              159991             7429.39        -1.64255e+07         2.39013e+09
   10.31              159562             7410.46        -1.63948e+07         2.38654e+09
   10.33              159135              7391.6         -1.6364e+07         2.38295e+09
   10.35              158708             7372.81        -1.63331e+07         2.37933e+09
   10.37              158283              7354.1        -1.63022e+07         2.37571e+09
   10.39              157857             7335.47        -1.62712e+07         2.37207e+09
   10.41              157433              7316.9        -1.62402e+07         2.36842e+09
   10.43              157010             7298.42        -1.62091e+07         2.36476e+09
   10.45              156587             7280.01        -1.61779e+07         2.36108e+09
   10.47              156165             7261.67        -1.61466e+07         2.35739e+09
   10.49              155744             7243.41        -1.61153e+07         2.35369e+09
   10.51              155324             7225.23         -1.6084e+07         2.34998e+09
   10.53              154905             7207.13        -1.60526e+07         2.34626e+09
   10.55              154487             7189.11        -1.60211e+07         2.34252e+09
   10.57              154070             7171.16        -1.59896e+07         2.33878e+09
   10.59              153653              7153.3        -1.59581e+07         2.33502e+09
   10.61              153237             7135.52        -1.59265e+07         2.33126e+09
   10.63              152823             7117.81        -1.58949e+07         2.32749e+09
   10.65              152409             7100.19        -1.58632e+07          2.3237e+09
   10.67              151996             7082.65        -1.58315e+07         2.31991e+09
   10.69              151585             7065.19        -1.57997e+07         2.31611e+09
   10.71              151174             7047.81        -1.57679e+07          2.3123e+09
   10.73              150764             7030.52        -1.57361e+07         2.30848e+09
   10.75              150355             7013.31        -1.57042e+07         2.30466e+09
   10.77              149947             6996.18        -1.56723e+07         2.30083e+09
   10.79              149540             6979.14        -1.56404e+07         2.29699e+09
   10.81              149134             6962.18        -1.56085e+07         2.29314e+09
   10.83              148730             6945.31        -1.55765e+07         2.28928e+09
   10.85              148326             6928.52        -1.55446e+07         2.28542e+09
   10.87              147923             6911.81        -1.55126e+07         2.28156e+09
   10.89              147522             6895.19        -1.54805e+07         2.27769e+09
   10.91              147121             6878.66        -1.54485e+07         2.27381e+09
   10.93              146722             6862.21        -1.54164e+07         2.26992e+09
   10.95              146323             6845.85        -1.53844e+07         2.26603e+09
   10.97              145926             6829.58        -1.53523e+07         2.26214e+09
   10.99              145530             6813.39        -1.53202e+07         2.25824e+09
   11.01              145134             6797.29        -1.52881e+07         2.25434e+09
   11.03              144741             6781.28         -1.5256e+07         2.25043e+09
   11.05              144348             6765.35        -1.52239e+07         2.24652e+09
   11.07              143956             6749.51        -1.51918e+07          2.2426e+09
   11.09              143565             6733.76        -1.51597e+07         2.23869e+09
   11.11              143176              6718.1        -1.51276e+07         2.23476e+09
   11.13              142788             6702.52        -1.50955e+07         2.23084e+09
   11.15              142400             6687.03        -1.50634e+07         2.22691e+09
   11.17              142015             6671.63        -1.50313e+07         2.22298e+09
   11.19              141630             6656.32        -1.49992e+07         2.21904e+09
   11.21              141246              6641.1        -1.49671e+07         2.21511e+09
   11.23              140864             6625.97         -1.4935e+07         2.21117e+09
   11.25              140482             6610.92        -1.49029e+07         2.20723e+09
   11.27              140102             6595.96        -1.48709e+07         2.20329e+09
   11.29              139724             6581.09        -1.48388e+07         2.19935e+09
   11.31              139346             6566.31        -1.48068e+07          2.1954e+09
   11.33              138970             6551.62        -1.47748e+07         2.19146e+09
   11.35              138594             6537.02        -1.47428e+07         2.18751e+09
   11.37              138221             6522.51        -1.47108e+07         2.18356e+09
   11.39              137848             6508.08        -1.46788e+07         2.17962e+09
   11.41              137476             6493.74        -1.46469e+07         2.17567e+09
   11.43              137106             6479.49         -1.4615e+07         2.17172e+09
   11.45              136737             6465.33        -1.45831e+07         2.16777e+09
   11.47              136369             6451.26        -1.45512e+07         2.16382e+09
   11.49              136003             6437.28        -1.45194e+07         2.15988e+09
   11.51              135638             6423.38        -1.44876e+07         2.15593e+09
   11.53              135274             6409.57        -1.44558e+07         2.15198e+09
   11.55              134911             6395.85         -1.4424e+07         2.14804e+09
   11.57              134549             6382.22        -1.43923e+07         2.14409e+09
   11.59              134189             6368.67        -1.43605e+07         2.14014e+09
   11.61              133830             6355.22        -1.43289e+07          2.1362e+09
   11.63              133473             6341.85        -1.42972e+07         2.13226e+09
   11.65              133116             6328.56        -1.42656e+07         2.12832e+09
   11.67              132761             6315.37         -1.4234e+07         2.12438e+09
   11.69              132407             6302.26        -1.42025e+07         2.12044e+09
   11.71              132055             6289.23         -1.4171e+07          2.1165e+09
   11.73              131704              6276.3        -1.41395e+07         2.11257e+09
   11.75              131354             6263.45        -1.41081e+07         2.10863e+09
   11.77              131005             6250.68        -1.40767e+07          2.1047e+09
   11.79              130658                6238        -1.40453e+07         2.10077e+09
   11.81              130311             6225.41         -1.4014e+07         2.09685e+09
   11.83              129967              6212.9        -1.39827e+07         2.09292e+09
   11.85              129623             6200.47        -1.39515e+07           2.089e+09
   11.87              129281             6188.13        -1.39203e+07         2.08508e+09
   11.89              128940             6175.88        -1.38891e+07         2.08116e+09
   11.91              128600              6163.7         -1.3858e+07         2.07725e+09
   11.93              128262             6151.62        -1.38269e+07         2.07334e+09
   11.95              127925             6139.61        -1.37959e+07         2.06943e+09
   11.97              127589             6127.69        -1.37649e+07         2.06552e+09
   11.99              127254             6115.84         -1.3734e+07         2.06161e+09
   12.01              126921             6104.09        -1.37031e+07         2.05771e+09
   12.03              126589             6092.41        -1.36722e+07         2.05382e+09
   12.05              126258             6080.81        -1.36414e+07         2.04992e+09
   12.07              125929             6069.29        -1.36107e+07         2.04603e+09
   12.09              125601             6057.86        -1.35799e+07         2.04214e+09
   12.11              125274              6046.5        -1.35493e+07         2.03825e+09
   12.13              124948             6035.23        -1.35187e+07         2.03437e+09
   12.15              124624             6024.03        -1.34881e+07         2.03049e+09
   12.17              124301             6012.91        -1.34576e+07         2.02661e+09
   12.19              123979             6001.87        -1.34271e+07         2.02274e+09
   12.21              123659             5990.91        -1.33967e+07         2.01887e+09
   12.23              123340             5980.02        -1.33663e+07           2.015e+09
   12.25              123022             5969.21        -1.33359e+07         2.01114e+09
   12.27              122705             5958.48        -1.33057e+07         2.00728e+09
   12.29              122389             5947.82        -1.32754e+07         2.00342e+09
   12.31              122075             5937.24        -1.32452e+07         1.99956e+09
   12.33              121762             5926.73        -1.32151e+07         1.99571e+09
   12.35              121451              5916.3         -1.3185e+07         1.99187e+09
   12.37              121140             5905.94         -1.3155e+07         1.98802e+09
   12.39              120831             5895.66         -1.3125e+07         1.98418e+09
   12.41              120523             5885.44         -1.3095e+07         1.98034e+09
   12.43              120216              5875.3        -1.30651e+07         1.97651e+09
   12.45              119910             5865.23        -1.30353e+07         1.97267e+09
   12.47              119606             5855.23        -1.30055e+07         1.96885e+09
   12.49              119303              5845.3        -1.29757e+07         1.96502e+09
   12.51              119001             5835.44         -1.2946e+07          1.9612e+09
   12.53              118700             5825.65        -1.29164e+07         1.95738e+09
   12.55              118400             5815.92        -1.28868e+07         1.95356e+09
   12.57              118102             5806.27        -1.28572e+07         1.94975e+09
   12.59              117805             5796.68        -1.28277e+07         1.94594e+09
   12.61              117509             5787.16        -1.27982e+07         1.94213e+09
   12.63              117214              5777.7        -1.27688e+07         1.93833e+09
   12.65              116920             5768.31        -1.27395e+07         1.93452e+09
   12.67              116627             5758.98        -1.27101e+07         1.93072e+09
   12.69              116336             5749.72        -1.26809e+07         1.92693e+09
   12.71              116046             5740.52        -1.26516e+07         1.92313e+09
   12.73              115757             5731.38        -1.26225e+07         1.91934e+09
   12.75              115469             5722.31        -1.25933e+07         1.91555e+09
   12.77              115182             5713.29        -1.25642e+07         1.91177e+09
   12.79              114896             5704.34        -1.25352e+07         1.90798e+09
   12.81              114611             5695.44        -1.25062e+07          1.9042e+09
   12.83              114328             5686.61        -1.24772e+07         1.90042e+09
   12.85              114045             5677.83        -1.24483e+07         1.89664e+09
   12.87              113764             5669.11        -1.24195e+07         1.89287e+09
   12.89              113484             5660.45        -1.23906e+07         1.88909e+09
   12.91              113204             5651.84        -1.23619e+07         1.88532e+09
   12.93              112926             5643.29        -1.23331e+07         1.88155e+09
   12.95              112649             5634.79        -1.23044e+07         1.87778e+09
   12.97              112373             5626.35        -1.22758e+07         1.87402e+09
   12.99              112098             5617.96        -1.22471e+07         1.87025e+09
   13.01              111824             5609.62        -1.22186e+07         1.86649e+09
   13.03              111551             5601.34          -1.219e+07         1.86273e+09
   13.05              111279              5593.1        -1.21615e+07         1.85897e+09
   13.07              111008             5584.92        -1.21331e+07         1.85521e+09
   13.09              110738             5576.78        -1.21046e+07         1.85145e+09
   13.11              110469              5568.7        -1.20763e+07         1.84769e+09
   13.13              110201             5560.66        -1.20479e+07         1.84393e+09
   13.15              109934             5552.66        -1.20196e+07         1.84018e+09
   13.17              109668             5544.72        -1.19913e+07         1.83642e+09
   13.19              109403             5536.82        -1.19631e+07         1.83267e+09
   13.21              109139             5528.96        -1.19349e+07         1.82891e+09
   13.23              108875             5521.15        -1.19067e+07         1.82516e+09
   13.25              108613             5513.38        -1.18785e+07          1.8214e+09
   13.27              108352             5505.65        -1.18504e+07         1.81765e+09
   13.29              108091             5497.96        -1.18224e+07         1.81389e+09
   13.31              107832             5490.32        -1.17943e+07         1.81014e+09
   13.33              107573             5482.71        -1.17663e+07         1.80638e+09
   13.35              107315             5475.14        -1.17383e+07         1.80263e+09
   13.37              107058             5467.61        -1.17103e+07         1.79887e+09
   13.39              106802             5460.12        -1.16824e+07         1.79512e+09
   13.41              106547             5452.66        -1.16545e+07         1.79136e+09
   13.43              106292             5445.24        -1.16266e+07          1.7876e+09
   13.45              106039             5437.85        -1.15988e+07         1.78385e+09
   13.47              105786              5430.5        -1.15709e+07         1.78009e+09
   13.49              105534             5423.18        -1.15431e+07         1.77632e+09
   13.51              105283             5415.89        -1.15154e+07         1.77256e+09
   13.53              105032             5408.64        -1.14876e+07          1.7688e+09
   13.55              104783             5401.41        -1.14599e+07         1.76503e+09
   13.57              104534             5394.21        -1.14322e+07         1.76127e+09
   13.59              104286             5387.05        -1.14045e+07          1.7575e+09
   13.61              104039             5379.91        -1.13768e+07         1.75372e+09
   13.63              103792             5372.79        -1.13491e+07         1.74995e+09
   13.65              103546              5365.7        -1.13215e+07         1.74618e+09
   13.67              103301             5358.64        -1.12939e+07          1.7424e+09
   13.69              103057              5351.6        -1.12663e+07         1.73862e+09
   13.71              102813             5344.59        -1.12387e+07         1.73483e+09
   13.73              102570              5337.6        -1.12111e+07         1.73105e+09
   13.75              102327             5330.63        -1.11836e+07         1.72726e+09
   13.77              102086             5323.68         -1.1156e+07         1.72347e+09
   13.79              101845             5316.75        -1.11285e+07         1.71967e+09
   13.81              101604             5309.84         -1.1101e+07         1.71588e+09
   13.83              101365             5302.95        -1.10735e+07         1.71207e+09
   13.85              101126             5296.07         -1.1046e+07         1.70827e+09
   13.87              100887             5289.22        -1.10185e+07         1.70446e+09
   13.89              100649             5282.38         -1.0991e+07         1.70065e+09
   13.91              100412             5275.55        -1.09636e+07         1.69683e+09
   13.93              100175             5268.73        -1.09361e+07         1.69301e+09
   13.95             99939.1             5261.93        -1.09086e+07         1.68919e+09
   13.97             99703.6             5255.15        -1.08812e+07         1.68536e+09
   13.99             99468.6             5248.37        -1.08538e+07         1.68152e+09
   14.01             99234.2              5241.6        -1.08263e+07         1.67769e+09
   14.03             99000.3             5234.85        -1.07989e+07         1.67384e+09
   14.05             98766.9              5228.1        -1.07714e+07            1.67e+09
   14.07             98534.1             5221.36         -1.0744e+07         1.66614e+09
   14.09             98301.8             5214.63        -1.07166e+07         1.66229e+09
   14.11               98070              5207.9        -1.06892e+07         1.65843e+09
   14.13             97838.6             5201.18        -1.06617e+07         1.65456e+09
   14.15             97607.8             5194.47        -1.06343e+07         1.65068e+09
   14.17             97377.4             5187.75        -1.06069e+07         1.64681e+09
   14.19             97147.5             5181.04        -1.05794e+07         1.64292e+09
   14.21               96918             5174.33         -1.0552e+07         1.63903e+09
   14.23               96689             5167.63        -1.05246e+07         1.63514e+09
   14.25             96460.5             5160.92        -1.04971e+07         1.63124e+09
   14.27             96232.3             5154.21        -1.04697e+07         1.62733e+09
   14.29             96004.6             5147.51        -1.04422e+07         1.62341e+09
   14.31             95777.3             5140.79        -1.04148e+07         1.61949e+09
   14.33             95550.3             5134.08        -1.03873e+07         1.61557e+09
   14.35             95323.8             5127.36        -1.03598e+07         1.61163e+09
   14.37             95097.7             5120.64        -1.03323e+07          1.6077e+09
   14.39             94871.9             5113.91        -1.03048e+07         1.60375e+09
   14.41             94646.5             5107.18        -1.02773e+07          1.5998e+09
   14.43             94421.4             5100.44        -1.02498e+07         1.59584e+09
   14.45             94196.7             5093.69        -1.02223e+07         1.59187e+09
   14.47             93972.3             5086.93        -1.01948e+07          1.5879e+09
   14.49             93748.3             5080.16        -1.01672e+07         1.58391e+09
   14.51             93524.6             5073.38        -1.01397e+07         1.57993e+09
   14.53             93301.2             5066.59        -1.01121e+07         1.57593e+09
   14.55               93078             5059.79        -1.00845e+07         1.57193e+09
   14.57             92855.2             5052.98        -1.00569e+07         1.56792e+09
   14.59             92632.7             5046.15        -1.00293e+07          1.5639e+09
   14.61             92410.5              5039.3        -1.00017e+07         1.55987e+09
   14.63             92188.5             5032.45        -9.97401e+06         1.55584e+09
   14.65             91966.8             5025.57        -9.94634e+06          1.5518e+09
   14.67             91745.4             5018.68        -9.91866e+06         1.54775e+09
   14.69             91524.2             5011.78        -9.89097e+06         1.54369e+09
   14.71             91303.3             5004.85        -9.86325e+06         1.53962e+09
   14.73             91082.6              4997.9        -9.83552e+06         1.53555e+09
   14.75             90862.1             4990.94        -9.80777e+06         1.53147e+09
   14.77             90641.8             4983.95           -9.78e+06         1.52738e+09
   14.79             90421.8             4976.95        -9.75221e+06         1.52328e+09
   14.81               90202             4969.92         -9.7244e+06         1.51917e+09
   14.83             89982.4             4962.87        -9.69657e+06         1.51505e+09
   14.85             89762.9             4955.79        -9.66872e+06         1.51093e+09
   14.87             89543.7             4948.69        -9.64085e+06          1.5068e+09
   14.89             89324.6             4941.57        -9.61295e+06         1.50266e+09
   14.91             89105.7             4934.42        -9.58504e+06         1.49851e+09
   14.93               88887             4927.25         -9.5571e+06         1.49435e+09
   14.95             88668.5             4920.04        -9.52914e+06         1.49018e+09
   14.97             88450.1             4912.81        -9.50116e+06           1.486e+09
   14.99             88231.8             4905.55        -9.47316e+06         1.48182e+09
   15.01             88013.7             4898.27        -9.44513e+06         1.47762e+09
   15.03             87795.8             4890.95        -9.41708e+06         1.47342e+09
   15.05               87578              4883.6          -9.389e+06         1.46921e+09
   15.07             87360.3             4876.22         -9.3609e+06         1.46498e+09
   15.09             87142.7             4868.81        -9.33278e+06         1.46075e+09
   15.11             86925.3             4861.37        -9.30463e+06         1.45651e+09
   15.13               86708             4853.89        -9.27646e+06         1.45227e+09
   15.15             86490.7             4846.39        -9.24827e+06         1.44801e+09
   15.17             86273.6             4838.84        -9.22005e+06         1.44374e+09
   15.19             86056.6             4831.26         -9.1918e+06         1.43946e+09
   15.21             85839.7             4823.65        -9.16353e+06         1.43518e+09
   15.23             85622.9                4816        -9.13524e+06         1.43088e+09
   15.25             85406.2             4808.31        -9.10692e+06         1.42658e+09
   15.27             85189.5             4800.59        -9.07857e+06         1.42227e+09
   15.29               84973             4792.83         -9.0502e+06         1.41794e+09
   15.31             84756.5             4785.02         -9.0218e+06         1.41361e+09
   15.33             84540.1             4777.19        -8.99338e+06         1.40927e+09
   15.35             84323.7             4769.31        -8.96493e+06         1.40492e+09
   15.37             84107.4             4761.39        -8.93646e+06         1.40056e+09
   15.39             83891.2             4753.43        -8.90796e+06         1.39619e+09
   15.41             83675.1             4745.43        -8.87944e+06         1.39182e+09
   15.43               83459             4737.38        -8.85089e+06         1.38743e+09
   15.45             83242.9              4729.3        -8.82232e+06         1.38303e+09
   15.47             83026.9             4721.17        -8.79372e+06         1.37863e+09
   15.49               82811                4713         -8.7651e+06         1.37421e+09
   15.51             82595.1             4704.78        -8.73645e+06         1.36979e+09
   15.53             82379.2             4696.52        -8.70778e+06         1.36536e+09
   15.55             82163.4             4688.21        -8.67909e+06         1.36092e+09
   15.57             81947.7             4679.86        -8.65037e+06         1.35646e+09
   15.59             81731.9             4671.47        -8.62162e+06         1.35201e+09
   15.61             81516.2             4663.02        -8.59285e+06         1.34754e+09
   15.63             81300.6             4654.54        -8.56406e+06         1.34306e+09
   15.65             81084.9                4646        -8.53524e+06         1.33857e+09
   15.67             80869.4             4637.41        -8.50641e+06         1.33408e+09
   15.69             80653.8             4628.78        -8.47754e+06         1.32957e+09
   15.71             80438.3              4620.1        -8.44866e+06         1.32506e+09
   15.73             80222.8             4611.37        -8.41975e+06         1.32054e+09
   15.75             80007.3             4602.59        -8.39082e+06         1.31601e+09
   15.77             79791.8             4593.76        -8.36187e+06         1.31147e+09
   15.79             79576.4             4584.88         -8.3329e+06         1.30692e+09
   15.81               79361             4575.95        -8.30391e+06         1.30237e+09
   15.83             79145.7             4566.97         -8.2749e+06          1.2978e+09
   15.85             78930.3             4557.94        -8.24586e+06         1.29323e+09
   15.87               78715             4548.85        -8.21681e+06         1.28865e+09
   15.89             78499.7             4539.72        -8.18774e+06         1.28406e+09
   15.91             78284.4             4530.53        -8.15865e+06         1.27947e+09
   15.93             78069.2             4521.29        -8.12954e+06         1.27486e+09
   15.95               77854             4511.99        -8.10041e+06         1.27025e+09
   15.97             77638.8             4502.65        -8.07126e+06         1.26563e+09
   15.99             77423.7             4493.24         -8.0421e+06           1.261e+09
   16.01             77208.6             4483.79        -8.01292e+06         1.25636e+09
   16.03             76993.5             4474.28        -7.98373e+06         1.25172e+09
   16.05             76778.4             4464.71        -7.95451e+06         1.24707e+09
   16.07             76563.4              4455.1        -7.92529e+06         1.24241e+09
   16.09             76348.4             4445.42        -7.89605e+06         1.23775e+09
   16.11             76133.5             4435.69        -7.86679e+06         1.23307e+09
   16.13             75918.5             4425.91        -7.83753e+06         1.22839e+09
   16.15             75703.7             4416.06        -7.80825e+06         1.22371e+09
   16.17             75488.8             4406.17        -7.77896e+06         1.21901e+09
   16.19               75274             4396.21        -7.74965e+06         1.21431e+09
   16.21             75059.3              4386.2        -7.72034e+06          1.2096e+09
   16.23             74844.6             4376.14        -7.69101e+06         1.20489e+09
   16.25               74630             4366.01        -7.66168e+06         1.20017e+09
   16.27             74415.4             4355.83        -7.63234e+06         1.19544e+09
   16.29             74200.8             4345.59        -7.60299e+06         1.19071e+09
   16.31             73986.3              4335.3        -7.57363e+06         1.18597e+09
   16.33             73771.9             4324.94        -7.54427e+06         1.18123e+09
   16.35             73557.6             4314.53         -7.5149e+06         1.17647e+09
   16.37             73343.3             4304.06        -7.48552e+06         1.17172e+09
   16.39             73129.1             4293.53        -7.45614e+06         1.16696e+09
   16.41             72914.9             4282.95        -7.42676e+06         1.16219e+09
   16.43             72700.9              4272.3        -7.39738e+06         1.15742e+09
   16.45             72486.9              4261.6        -7.36799e+06         1.15264e+09
   16.47               72273             4250.84         -7.3386e+06         1.14785e+09
   16.49             72059.1             4240.02        -7.30921e+06         1.14307e+09
   16.51             71845.4             4229.14        -7.27982e+06         1.13827e+09
   16.53             71631.8             4218.21        -7.25043e+06         1.13348e+09
   16.55             71418.2             4207.21        -7.22105e+06         1.12867e+09
   16.57             71204.8             4196.15        -7.19166e+06         1.12387e+09
   16.59             70991.5             4185.04        -7.16228e+06         1.11906e+09
   16.61             70778.3             4173.87        -7.13291e+06         1.11424e+09
   16.63             70565.2             4162.64        -7.10354e+06         1.10942e+09
   16.65             70352.2             4151.34        -7.07418e+06          1.1046e+09
   16.67             70139.3             4139.99        -7.04482e+06         1.09978e+09
   16.69             69926.6             4128.59        -7.01547e+06         1.09495e+09
   16.71               69714             4117.12        -6.98614e+06         1.09012e+09
   16.73             69501.6             4105.59        -6.95681e+06         1.08528e+09
   16.75             69289.2                4094        -6.92749e+06         1.08044e+09
   16.77             69077.1             4082.36        -6.89819e+06          1.0756e+09
   16.79             68865.1             4070.65        -6.86889e+06         1.07076e+09
   16.81             68653.2             4058.89        -6.83962e+06         1.06591e+09
   16.83             68441.5             4047.07        -6.81035e+06         1.06106e+09
   16.85               68230             4035.19         -6.7811e+06         1.05621e+09
   16.87             68018.6             4023.25        -6.75187e+06         1.05136e+09
   16.89             67807.5             4011.25        -6.72266e+06          1.0465e+09
   16.91             67596.5              3999.2        -6.69346e+06         1.04165e+09
   16.93             67385.7             3987.08        -6.66429e+06         1.03679e+09
   16.95             67175.1             3974.91        -6.63513e+06         1.03193e+09
   16.97             66964.7             3962.68          -6.606e+06         1.02707e+09
   16.99             66754.5             3950.39        -6.57689e+06         1.02221e+09
   17.01             66544.5             3938.04         -6.5478e+06         1.01735e+09
   17.03             66334.7             3925.64        -6.51874e+06         1.01248e+09
   17.05             66125.2             3913.18         -6.4897e+06         1.00762e+09
   17.07             65915.9             3900.66        -6.46069e+06         1.00276e+09
   17.09             65706.8             3888.08        -6.43171e+06         9.97896e+08
   17.11               65498             3875.45        -6.40276e+06         9.93033e+08
   17.13             65289.4             3862.76        -6.37383e+06          9.8817e+08
   17.15               65081             3850.01        -6.34494e+06         9.83308e+08
   17.17               64873              3837.2        -6.31608e+06         9.78447e+08
   17.19             64665.2             3824.34        -6.28725e+06         9.73586e+08
   17.21             64457.6             3811.43        -6.25846e+06         9.68726e+08
   17.23             64250.4             3798.46         -6.2297e+06         9.63868e+08
   17.25             64043.4             3785.43        -6.20098e+06         9.59011e+08
   17.27             63836.7             3772.35        -6.17229e+06         9.54156e+08
   17.29             63630.3             3759.21        -6.14365e+06         9.49302e+08
   17.31             63424.3             3746.02        -6.11504e+06          9.4445e+08
   17.33             63218.5             3732.77        -6.08647e+06         9.39601e+08
   17.35             63013.1             3719.47        -6.05794e+06         9.34753e+08
   17.37             62807.9             3706.12        -6.02946e+06         9.29909e+08
   17.39             62603.1             3692.71        -6.00102e+06         9.25067e+08
   17.41             62398.7             3679.25        -5.97263e+06         9.20228e+08
   17.43             62194.6             3665.74        -5.94428e+06         9.15392e+08
   17.45             61990.8             3652.17        -5.91597e+06         9.10559e+08
   17.47             61787.4             3638.55        -5.88772e+06          9.0573e+08
   17.49             61584.3             3624.88        -5.85951e+06         9.00904e+08
   17.51             61381.7             3611.16        -5.83136e+06         8.96082e+08
   17.53             61179.4             3597.39        -5.80325e+06         8.91265e+08
   17.55             60977.5             3583.56         -5.7752e+06         8.86451e+08
   17.57             60775.9             3569.69         -5.7472e+06         8.81642e+08
   17.59             60574.8             3555.76        -5.71925e+06         8.76837e+08
   17.61             60374.1             3541.79        -5.69136e+06         8.72038e+08
   17.63             60173.8             3527.77        -5.66353e+06         8.67243e+08
   17.65             59973.9             3513.69        -5.63575e+06         8.62453e+08
   17.67             59774.4             3499.57        -5.60803e+06         8.57669e+08
   17.69             59575.3             3485.41        -5.58037e+06          8.5289e+08
   17.71             59376.7             3471.19        -5.55277e+06         8.48117e+08
   17.73             59178.6             3456.93        -5.52524e+06          8.4335e+08
   17.75             58980.9             3442.62        -5.49776e+06         8.38589e+08
   17.77             58783.6             3428.26        -5.47035e+06         8.33834e+08
   17.79             58586.8             3413.86          -5.443e+06         8.29085e+08
   17.81             58390.5             3399.41        -5.41572e+06         8.24344e+08
   17.83             58194.6             3384.92        -5.38851e+06         8.19609e+08
   17.85             57999.3             3370.38        -5.36136e+06         8.14881e+08
   17.87             57804.4              3355.8        -5.33428e+06          8.1016e+08
   17.89               57610             3341.18        -5.30728e+06         8.05447e+08
   17.91             57416.2             3326.51        -5.28034e+06         8.00741e+08
   17.93             57222.8             3311.81        -5.25347e+06         7.96043e+08
   17.95               57030             3297.06        -5.22668e+06         7.91353e+08
   17.97             56837.7             3282.27        -5.19996e+06         7.86672e+08
   17.99             56645.9             3267.43        -5.17332e+06         7.81998e+08
   18.01             56454.6             3252.56        -5.14675e+06         7.77333e+08
   18.03             56263.9             3237.65        -5.12026e+06         7.72676e+08
   18.05             56073.8              3222.7        -5.09384e+06         7.68029e+08
   18.07             55884.2             3207.71        -5.06751e+06          7.6339e+08
   18.09             55695.1             3192.68        -5.04125e+06         7.58761e+08
   18.11             55506.6             3177.62        -5.01508e+06         7.54141e+08
   18.13             55318.7             3162.52        -4.98898e+06          7.4953e+08
   18.15             55131.4             3147.38        -4.96297e+06         7.44929e+08
   18.17             54944.7             3132.21        -4.93704e+06         7.40338e+08
   18.19             54758.6                3117         -4.9112e+06         7.35758e+08
   18.21               54573             3101.76        -4.88544e+06         7.31187e+08
   18.23             54388.1             3086.48        -4.85976e+06         7.26627e+08
   18.25             54203.8             3071.17        -4.83418e+06         7.22077e+08
   18.27             54020.1             3055.83        -4.80868e+06         7.17538e+08
   18.29               53837             3040.46        -4.78327e+06          7.1301e+08
   18.31             53654.6             3025.05        -4.75795e+06         7.08493e+08
   18.33             53472.8             3009.62        -4.73272e+06         7.03987e+08
   18.35             53291.6             2994.15        -4.70758e+06         6.99493e+08
   18.37             53111.1             2978.66        -4.68253e+06          6.9501e+08
   18.39             52931.2             2963.14        -4.65758e+06         6.90539e+08
   18.41               52752             2947.59        -4.63271e+06          6.8608e+08
   18.43             52573.5             2932.01        -4.60795e+06         6.81633e+08
   18.45             52395.6              2916.4        -4.58328e+06         6.77198e+08
   18.47             52218.4             2900.77         -4.5587e+06         6.72775e+08
   18.49             52041.9             2885.12        -4.53422e+06         6.68365e+08
   18.51             51866.1             2869.44        -4.50984e+06         6.63968e+08
   18.53             51690.9             2853.74        -4.48556e+06         6.59583e+08
   18.55             51516.5             2838.01        -4.46138e+06         6.55212e+08
   18.57             51342.8             2822.26        -4.43729e+06         6.50853e+08
   18.59             51169.7             2806.49        -4.41331e+06         6.46508e+08
   18.61             50997.4              2790.7        -4.38943e+06         6.42176e+08
   18.63             50825.8             2774.89        -4.36565e+06         6.37857e+08
   18.65             50654.9             2759.06        -4.34197e+06         6.33553e+08
   18.67             50484.8             2743.21         -4.3184e+06         6.29262e+08
   18.69             50315.4             2727.34        -4.29493e+06         6.24985e+08
   18.71             50146.7             2711.46        -4.27157e+06         6.20722e+08
   18.73             49978.8             2695.56        -4.24831e+06         6.16473e+08
   18.75             49811.6             2679.65        -4.22516e+06         6.12239e+08
   18.77             49645.1             2663.71        -4.20211e+06          6.0802e+08
   18.79             49479.4             2647.77        -4.17917e+06         6.03815e+08
   18.81             49314.5             2631.81        -4.15634e+06         5.99624e+08
   18.83             49150.3             2615.84        -4.13362e+06         5.95449e+08
   18.85             48986.9             2599.86        -4.11101e+06         5.91289e+08
   18.87             48824.3             2583.87         -4.0885e+06         5.87143e+08
   18.89             48662.5             2567.86        -4.06611e+06         5.83013e+08
   18.91             48501.4             2551.85        -4.04383e+06         5.78899e+08
   18.93             48341.1             2535.83        -4.02165e+06           5.748e+08
   18.95             48181.6              2519.8        -3.99959e+06         5.70716e+08
   18.97             48022.9             2503.76        -3.97765e+06         5.66649e+08
   18.99               47865             2487.72        -3.95581e+06         5.62597e+08
   19.01             47707.9             2471.67        -3.93409e+06         5.58561e+08
   19.03             47551.6             2455.62        -3.91248e+06         5.54541e+08
   19.05             47396.1             2439.56        -3.89099e+06         5.50538e+08
   19.07             47241.4              2423.5        -3.86961e+06         5.46551e+08
   19.09             47087.5             2407.44        -3.84835e+06          5.4258e+08
   19.11             46934.5             2391.38         -3.8272e+06         5.38625e+08
   19.13             46782.2             2375.32        -3.80617e+06         5.34688e+08
   19.15             46630.8             2359.25        -3.78526e+06         5.30767e+08
   19.17             46480.2             2343.19        -3.76446e+06         5.26862e+08
   19.19             46330.4             2327.13        -3.74378e+06         5.22975e+08
   19.21             46181.5             2311.08        -3.72321e+06         5.19105e+08
   19.23             46033.4             2295.02        -3.70277e+06         5.15252e+08
   19.25             45886.1             2278.97        -3.68244e+06         5.11416e+08
   19.27             45739.7             2262.93        -3.66223e+06         5.07597e+08
   19.29             45594.1             2246.89        -3.64214e+06         5.03796e+08
   19.31             45449.3             2230.86        -3.62217e+06         5.00012e+08
   19.33             45305.4             2214.84        -3.60232e+06         4.96245e+08
   19.35             45162.3             2198.83        -3.58259e+06         4.92496e+08
   19.37             45020.1             2182.82        -3.56298e+06         4.88765e+08
   19.39             44878.7             2166.83        -3.54349e+06         4.85052e+08
   19.41             44738.2             2150.85        -3.52412e+06         4.81357e+08
   19.43             44598.6             2134.88        -3.50487e+06         4.77679e+08
   19.45             44459.8             2118.92        -3.48574e+06         4.74019e+08
   19.47             44321.8             2102.97        -3.46673e+06         4.70378e+08
   19.49             44184.7             2087.05        -3.44784e+06         4.66754e+08
   19.51             44048.5             2071.13        -3.42908e+06         4.63149e+08
   19.53             43913.1             2055.23        -3.41043e+06         4.59562e+08
   19.55             43778.6             2039.35        -3.39191e+06         4.55994e+08
   19.57               43645             2023.49        -3.37351e+06         4.52443e+08
   19.59             43512.2             2007.65        -3.35523e+06         4.48912e+08
   19.61             43380.3             1991.82        -3.33708e+06         4.45398e+08
   19.63             43249.3             1976.02        -3.31904e+06         4.41903e+08
   19.65             43119.1             1960.23        -3.30113e+06         4.38427e+08
   19.67             42989.8             1944.47        -3.28334e+06          4.3497e+08
   19.69             42861.4             1928.73        -3.26568e+06         4.31531e+08
   19.71             42733.8             1913.02        -3.24813e+06         4.28111e+08
   19.73             42607.1             1897.33        -3.23071e+06         4.24709e+08
   19.75             42481.3             1881.67        -3.21341e+06         4.21327e+08
   19.77             42356.3             1866.03        -3.19623e+06         4.17963e+08
   19.79             42232.2             1850.42        -3.17918e+06         4.14619e+08
   19.81               42109             1834.83        -3.16225e+06         4.11293e+08
   19.83             41986.6             1819.28        -3.14544e+06         4.07986e+08
   19.85             41865.2             1803.75        -3.12875e+06         4.04699e+08
   19.87             41744.5             1788.26        -3.11219e+06          4.0143e+08
   19.89             41624.8              1772.8        -3.09575e+06          3.9818e+08
   19.91             41505.9             1757.36        -3.07943e+06          3.9495e+08
   19.93             41387.9             1741.96        -3.06323e+06         3.91739e+08
   19.95             41270.8              1726.6        -3.04716e+06         3.88547e+08
   19.97             41154.5             1711.27         -3.0312e+06         3.85374e+08
   19.99             41039.1             1695.97        -3.01537e+06          3.8222e+08
